TITLE	
DATA TYPE	
ORIGIN	JASCO
OWNER	
DATE	97/10/31
TIME	22:01:40
SPECTROMETER/DATA SYSTEM	JASCO Corp., V-550, Rev. 1.00
RESOLUTION	
DELTAX	0.5
XUNITS	SEC
YUNITS	ABSORBANCE
FIRSTX	0.0000
LASTX	400.0000
NPOINTS	801
FIRSTY	-0.00008
MAXY	1.16558
MINY	-0.00038
XYDATA
0.0000	-8E-05
0.5000	-6E-05
1.0000	-1E-05
1.5000	2E-05
2.0000	-2E-05
2.5000	-2.1E-04
3.0000	-3.3E-04
3.5000	-3.1E-04
4.0000	-1.4E-04
4.5000	-1.7E-04
5.0000	-2.8E-04
5.5000	-1.8E-04
6.0000	-8E-05
6.5000	-2.1E-04
7.0000	-3.3E-04
7.5000	-1.4E-04
8.0000	-1.1E-04
8.5000	-2.4E-04
9.0000	-2.9E-04
9.5000	-3.8E-04
10.0000	-3.3E-04
10.5000	0.00994
11.0000	0.07891
11.5000	0.21868
12.0000	0.35046
12.5000	0.45441
13.0000	0.54876
13.5000	0.62321
14.0000	0.69212
14.5000	0.75213
15.0000	0.80097
15.5000	0.84455
16.0000	0.8821
16.5000	0.91277
17.0000	0.94249
17.5000	0.96792
18.0000	0.9881
18.5000	1.00842
19.0000	1.02627
19.5000	1.03986
20.0000	1.05142
20.5000	1.06254
21.0000	1.07201
21.5000	1.08094
22.0000	1.08923
22.5000	1.09754
23.0000	1.10438
23.5000	1.10863
24.0000	1.11266
24.5000	1.1165
25.0000	1.12014
25.5000	1.1241
26.0000	1.12768
26.5000	1.1307
27.0000	1.13372
27.5000	1.13588
28.0000	1.13729
28.5000	1.13961
29.0000	1.14141
29.5000	1.14273
30.0000	1.14422
30.5000	1.14601
31.0000	1.14759
31.5000	1.1484
32.0000	1.14979
32.5000	1.15165
33.0000	1.1534
33.5000	1.15454
34.0000	1.15436
34.5000	1.1537
35.0000	1.15408
35.5000	1.15487
36.0000	1.15523
36.5000	1.15572
37.0000	1.15686
37.5000	1.15822
38.0000	1.15888
38.5000	1.15842
39.0000	1.15831
39.5000	1.15921
40.0000	1.16067
40.5000	1.16054
41.0000	1.16558
41.5000	1.14634
42.0000	1.10261
42.5000	1.05878
43.0000	1.0168
43.5000	0.97953
44.0000	0.94145
44.5000	0.90508
45.0000	0.87277
45.5000	0.84026
46.0000	0.80963
46.5000	0.78205
47.0000	0.75404
47.5000	0.72778
48.0000	0.70423
48.5000	0.68041
49.0000	0.65919
49.5000	0.63766
50.0000	0.61746
50.5000	0.59942
51.0000	0.58079
51.5000	0.56334
52.0000	0.54789
52.5000	0.53218
53.0000	0.51722
53.5000	0.50382
54.0000	0.49044
54.5000	0.47769
55.0000	0.46634
55.5000	0.45483
56.0000	0.44389
56.5000	0.43411
57.0000	0.42439
57.5000	0.41509
58.0000	0.40666
58.5000	0.39827
59.0000	0.39063
59.5000	0.38303
60.0000	0.37591
60.5000	0.36943
61.0000	0.36296
61.5000	0.3567
62.0000	0.35107
62.5000	0.34552
63.0000	0.3403
63.5000	0.33573
64.0000	0.33096
64.5000	0.3262
65.0000	0.32207
65.5000	0.31809
66.0000	0.31423
66.5000	0.31078
67.0000	0.30719
67.5000	0.30404
68.0000	0.30081
68.5000	0.29791
69.0000	0.29545
69.5000	0.29266
70.0000	0.2899
70.5000	0.28762
71.0000	0.28551
71.5000	0.28337
72.0000	0.2814
72.5000	0.27937
73.0000	0.27743
73.5000	0.27581
74.0000	0.274
74.5000	0.27234
75.0000	0.27098
75.5000	0.26962
76.0000	0.26829
76.5000	0.26703
77.0000	0.26577
77.5000	0.26471
78.0000	0.26352
78.5000	0.26234
79.0000	0.26146
79.5000	0.26047
80.0000	0.25952
80.5000	0.25878
81.0000	0.25794
81.5000	0.25712
82.0000	0.25645
82.5000	0.25584
83.0000	0.25512
83.5000	0.25446
84.0000	0.2539
84.5000	0.25343
85.0000	0.25284
85.5000	0.25231
86.0000	0.25188
86.5000	0.25134
87.0000	0.25085
87.5000	0.2504
88.0000	0.25001
88.5000	0.24957
89.0000	0.24916
89.5000	0.24886
90.0000	0.24856
90.5000	0.2483
91.0000	0.24803
91.5000	0.2477
92.0000	0.24749
92.5000	0.24722
93.0000	0.24696
93.5000	0.24672
94.0000	0.24653
94.5000	0.24635
95.0000	0.24608
95.5000	0.24589
96.0000	0.24575
96.5000	0.24569
97.0000	0.24567
97.5000	0.24548
98.0000	0.24516
98.5000	0.24505
99.0000	0.24491
99.5000	0.24479
100.0000	0.24479
100.5000	0.2446
101.0000	0.24457
101.5000	0.24455
102.0000	0.24438
102.5000	0.24425
103.0000	0.24414
103.5000	0.24407
104.0000	0.24396
104.5000	0.24385
105.0000	0.2438
105.5000	0.24379
106.0000	0.24374
106.5000	0.24371
107.0000	0.2436
107.5000	0.24358
108.0000	0.24359
108.5000	0.24356
109.0000	0.2435
109.5000	0.24338
110.0000	0.2433
110.5000	0.24323
111.0000	0.24318
111.5000	0.24318
112.0000	0.24315
112.5000	0.24314
113.0000	0.24314
113.5000	0.24306
114.0000	0.24302
114.5000	0.243
115.0000	0.24292
115.5000	0.2429
116.0000	0.24298
116.5000	0.24294
117.0000	0.24286
117.5000	0.24277
118.0000	0.24272
118.5000	0.24282
119.0000	0.24276
119.5000	0.2427
120.0000	0.24277
120.5000	0.24269
121.0000	0.24264
121.5000	0.24263
122.0000	0.24252
122.5000	0.24249
123.0000	0.24247
123.5000	0.24241
124.0000	0.24243
124.5000	0.24248
125.0000	0.24253
125.5000	0.2425
126.0000	0.24258
126.5000	0.24254
127.0000	0.24247
127.5000	0.24252
128.0000	0.24248
128.5000	0.24244
129.0000	0.24256
129.5000	0.24247
130.0000	0.24246
130.5000	0.24252
131.0000	0.24249
131.5000	0.24243
132.0000	0.24221
132.5000	0.24214
133.0000	0.24232
133.5000	0.24235
134.0000	0.24232
134.5000	0.24237
135.0000	0.24232
135.5000	0.24229
136.0000	0.24231
136.5000	0.24234
137.0000	0.24243
137.5000	0.24249
138.0000	0.24242
138.5000	0.24234
139.0000	0.24223
139.5000	0.24223
140.0000	0.24224
140.5000	0.24234
141.0000	0.24239
141.5000	0.2423
142.0000	0.24222
142.5000	0.24214
143.0000	0.24217
143.5000	0.24221
144.0000	0.2421
144.5000	0.2421
145.0000	0.24214
145.5000	0.24209
146.0000	0.24209
146.5000	0.24211
147.0000	0.2422
147.5000	0.24214
148.0000	0.24204
148.5000	0.24213
149.0000	0.24213
149.5000	0.24211
150.0000	0.24207
150.5000	0.2422
151.0000	0.24224
151.5000	0.24218
152.0000	0.24223
152.5000	0.24227
153.0000	0.24218
153.5000	0.24217
154.0000	0.24217
154.5000	0.24215
155.0000	0.24218
155.5000	0.24217
156.0000	0.24209
156.5000	0.24206
157.0000	0.24198
157.5000	0.24201
158.0000	0.24208
158.5000	0.2421
159.0000	0.24214
159.5000	0.24206
160.0000	0.24209
160.5000	0.24222
161.0000	0.24214
161.5000	0.242
162.0000	0.24216
162.5000	0.24219
163.0000	0.24211
163.5000	0.24211
164.0000	0.24206
164.5000	0.24206
165.0000	0.24215
165.5000	0.24214
166.0000	0.24217
166.5000	0.24215
167.0000	0.2421
167.5000	0.2422
168.0000	0.24222
168.5000	0.2422
169.0000	0.24202
169.5000	0.24196
170.0000	0.24215
170.5000	0.24213
171.0000	0.24205
171.5000	0.24209
172.0000	0.24213
172.5000	0.2421
173.0000	0.24201
173.5000	0.24204
174.0000	0.24208
174.5000	0.24201
175.0000	0.24198
175.5000	0.24194
176.0000	0.24201
176.5000	0.24204
177.0000	0.24193
177.5000	0.24199
178.0000	0.24214
178.5000	0.24203
179.0000	0.2419
179.5000	0.24195
180.0000	0.24203
180.5000	0.242
181.0000	0.24198
181.5000	0.24201
182.0000	0.24199
182.5000	0.24197
183.0000	0.24193
183.5000	0.24194
184.0000	0.24197
184.5000	0.24184
185.0000	0.24189
185.5000	0.24202
186.0000	0.24191
186.5000	0.24187
187.0000	0.24192
187.5000	0.24199
188.0000	0.24199
188.5000	0.2418
189.0000	0.24184
189.5000	0.24196
190.0000	0.24185
190.5000	0.24177
191.0000	0.24195
191.5000	0.24201
192.0000	0.24185
192.5000	0.24174
193.0000	0.24173
193.5000	0.24181
194.0000	0.24187
194.5000	0.2418
195.0000	0.24186
195.5000	0.24186
196.0000	0.24173
196.5000	0.24173
197.0000	0.24179
197.5000	0.24176
198.0000	0.24174
198.5000	0.2419
199.0000	0.24194
199.5000	0.24186
200.0000	0.24187
200.5000	0.24181
201.0000	0.24185
201.5000	0.24182
202.0000	0.24177
202.5000	0.24174
203.0000	0.24167
203.5000	0.2417
204.0000	0.24174
204.5000	0.2417
205.0000	0.24168
205.5000	0.24178
206.0000	0.24176
206.5000	0.24183
207.0000	0.24188
207.5000	0.24174
208.0000	0.24162
208.5000	0.24172
209.0000	0.2419
209.5000	0.24198
210.0000	0.24171
210.5000	0.2416
211.0000	0.24171
211.5000	0.24181
212.0000	0.24176
212.5000	0.24166
213.0000	0.24159
213.5000	0.24163
214.0000	0.24171
214.5000	0.24175
215.0000	0.24171
215.5000	0.24166
216.0000	0.24169
216.5000	0.24168
217.0000	0.24163
217.5000	0.2416
218.0000	0.24168
218.5000	0.24175
219.0000	0.24175
219.5000	0.24166
220.0000	0.24166
220.5000	0.24165
221.0000	0.24167
221.5000	0.24173
222.0000	0.24168
222.5000	0.2416
223.0000	0.24167
223.5000	0.24167
224.0000	0.24169
224.5000	0.24177
225.0000	0.24165
225.5000	0.2416
226.0000	0.24163
226.5000	0.24165
227.0000	0.24164
227.5000	0.24168
228.0000	0.24172
228.5000	0.24176
229.0000	0.24177
229.5000	0.24179
230.0000	0.24175
230.5000	0.24175
231.0000	0.24168
231.5000	0.24162
232.0000	0.24152
232.5000	0.24147
233.0000	0.24157
233.5000	0.24161
234.0000	0.2416
234.5000	0.24154
235.0000	0.24158
235.5000	0.24159
236.0000	0.24164
236.5000	0.24166
237.0000	0.24163
237.5000	0.24166
238.0000	0.24162
238.5000	0.24165
239.0000	0.24169
239.5000	0.24171
240.0000	0.24163
240.5000	0.24157
241.0000	0.2416
241.5000	0.24157
242.0000	0.24168
242.5000	0.24162
243.0000	0.24156
243.5000	0.24158
244.0000	0.24154
244.5000	0.24145
245.0000	0.24149
245.5000	0.24158
246.0000	0.24157
246.5000	0.24151
247.0000	0.24152
247.5000	0.24154
248.0000	0.24154
248.5000	0.24144
249.0000	0.24148
249.5000	0.24161
250.0000	0.2415
250.5000	0.24153
251.0000	0.2416
251.5000	0.24159
252.0000	0.24147
252.5000	0.2414
253.0000	0.24139
253.5000	0.24133
254.0000	0.24137
254.5000	0.24142
255.0000	0.24146
255.5000	0.24145
256.0000	0.24144
256.5000	0.24149
257.0000	0.24142
257.5000	0.24144
258.0000	0.24154
258.5000	0.24153
259.0000	0.24157
259.5000	0.24159
260.0000	0.24164
260.5000	0.24155
261.0000	0.24148
261.5000	0.24152
262.0000	0.24144
262.5000	0.24136
263.0000	0.2414
263.5000	0.2414
264.0000	0.24142
264.5000	0.24147
265.0000	0.24136
265.5000	0.2412
266.0000	0.24117
266.5000	0.2413
267.0000	0.24145
267.5000	0.2416
268.0000	0.24149
268.5000	0.2414
269.0000	0.24146
269.5000	0.24144
270.0000	0.24143
270.5000	0.24131
271.0000	0.24128
271.5000	0.24125
272.0000	0.24128
272.5000	0.2413
273.0000	0.2413
273.5000	0.24131
274.0000	0.24133
274.5000	0.24138
275.0000	0.24138
275.5000	0.24146
276.0000	0.24137
276.5000	0.24128
277.0000	0.24123
277.5000	0.24132
278.0000	0.24132
278.5000	0.24116
279.0000	0.24116
279.5000	0.24131
280.0000	0.24124
280.5000	0.24126
281.0000	0.24131
281.5000	0.24129
282.0000	0.2413
282.5000	0.24123
283.0000	0.24113
283.5000	0.24115
284.0000	0.24118
284.5000	0.24123
285.0000	0.24126
285.5000	0.24115
286.0000	0.24111
286.5000	0.24119
287.0000	0.24122
287.5000	0.24116
288.0000	0.24117
288.5000	0.24119
289.0000	0.24107
289.5000	0.24096
290.0000	0.24109
290.5000	0.24117
291.0000	0.24114
291.5000	0.24119
292.0000	0.24124
292.5000	0.24127
293.0000	0.24127
293.5000	0.24111
294.0000	0.24107
294.5000	0.241
295.0000	0.24097
295.5000	0.24104
296.0000	0.24107
296.5000	0.24115
297.0000	0.24121
297.5000	0.24114
298.0000	0.24117
298.5000	0.24114
299.0000	0.24115
299.5000	0.24113
300.0000	0.24099
300.5000	0.2411
301.0000	0.24108
301.5000	0.24098
302.0000	0.24098
302.5000	0.24104
303.0000	0.24109
303.5000	0.24102
304.0000	0.24105
304.5000	0.24106
305.0000	0.24108
305.5000	0.24109
306.0000	0.24102
306.5000	0.24112
307.0000	0.24111
307.5000	0.24093
308.0000	0.24089
308.5000	0.24093
309.0000	0.24105
309.5000	0.24111
310.0000	0.24098
310.5000	0.24094
311.0000	0.241
311.5000	0.24099
312.0000	0.2409
312.5000	0.24089
313.0000	0.24093
313.5000	0.24101
314.0000	0.241
314.5000	0.24101
315.0000	0.24098
315.5000	0.24089
316.0000	0.24091
316.5000	0.241
317.0000	0.24093
317.5000	0.24094
318.0000	0.24093
318.5000	0.24083
319.0000	0.24087
319.5000	0.24089
320.0000	0.24097
320.5000	0.241
321.0000	0.24095
321.5000	0.24088
322.0000	0.2409
322.5000	0.24089
323.0000	0.24078
323.5000	0.24084
324.0000	0.24091
324.5000	0.24083
325.0000	0.2409
325.5000	0.241
326.0000	0.24087
326.5000	0.24084
327.0000	0.24089
327.5000	0.24076
328.0000	0.24062
328.5000	0.24065
329.0000	0.24082
329.5000	0.24087
330.0000	0.24091
330.5000	0.24089
331.0000	0.24085
331.5000	0.2409
332.0000	0.24084
332.5000	0.24084
333.0000	0.24082
333.5000	0.24066
334.0000	0.24071
334.5000	0.24081
335.0000	0.24082
335.5000	0.24092
336.0000	0.24098
336.5000	0.24087
337.0000	0.24078
337.5000	0.24079
338.0000	0.24072
338.5000	0.2407
339.0000	0.24075
339.5000	0.24072
340.0000	0.24082
340.5000	0.24082
341.0000	0.24069
341.5000	0.24069
342.0000	0.24073
342.5000	0.24062
343.0000	0.24069
343.5000	0.24068
344.0000	0.24054
344.5000	0.24059
345.0000	0.24056
345.5000	0.24062
346.0000	0.24069
346.5000	0.24068
347.0000	0.24073
347.5000	0.24077
348.0000	0.24066
348.5000	0.24061
349.0000	0.24069
349.5000	0.24064
350.0000	0.24052
350.5000	0.24058
351.0000	0.24075
351.5000	0.2407
352.0000	0.24066
352.5000	0.24073
353.0000	0.24074
353.5000	0.24075
354.0000	0.24071
354.5000	0.24061
355.0000	0.2405
355.5000	0.24044
356.0000	0.24057
356.5000	0.24061
357.0000	0.24056
357.5000	0.2405
358.0000	0.24052
358.5000	0.24053
359.0000	0.24051
359.5000	0.24053
360.0000	0.24059
360.5000	0.24064
361.0000	0.24054
361.5000	0.24046
362.0000	0.24052
362.5000	0.24057
363.0000	0.2405
363.5000	0.24051
364.0000	0.24058
364.5000	0.24069
365.0000	0.24059
365.5000	0.24048
366.0000	0.24052
366.5000	0.2404
367.0000	0.24044
367.5000	0.24059
368.0000	0.24058
368.5000	0.24049
369.0000	0.24045
369.5000	0.24057
370.0000	0.24057
370.5000	0.24043
371.0000	0.2404
371.5000	0.24044
372.0000	0.24038
372.5000	0.24044
373.0000	0.24057
373.5000	0.24059
374.0000	0.24055
374.5000	0.24065
375.0000	0.24062
375.5000	0.24054
376.0000	0.24046
376.5000	0.2404
377.0000	0.24039
377.5000	0.24037
378.0000	0.24042
378.5000	0.24048
379.0000	0.24039
379.5000	0.24032
380.0000	0.24037
380.5000	0.24037
381.0000	0.24038
381.5000	0.24044
382.0000	0.24043
382.5000	0.24042
383.0000	0.24048
383.5000	0.24043
384.0000	0.24035
384.5000	0.24042
385.0000	0.24043
385.5000	0.24035
386.0000	0.24025
386.5000	0.24027
387.0000	0.24028
387.5000	0.24036
388.0000	0.24051
388.5000	0.24049
389.0000	0.24039
389.5000	0.24034
390.0000	0.24034
390.5000	0.2403
391.0000	0.24018
391.5000	0.24038
392.0000	0.24049
392.5000	0.24046
393.0000	0.2405
393.5000	0.24053
394.0000	0.2405
394.5000	0.24038
395.0000	0.24025
395.5000	0.24031
396.0000	0.24033
396.5000	0.24032
397.0000	0.24027
397.5000	0.24028
398.0000	0.24025
398.5000	0.24022
399.0000	0.24035
399.5000	0.24038
400.0000	0.24031
